File: data/reports/Al2O3-550_2579-ASMS_St2_2022_09_25_01 (Isotherm).TXT
'Relative Pressure' 'Quantity Adsorbed (cm3/g STP)'
1.34063e-02 38.9376
1.94625e-02 41.0540
2.49835e-02 42.5764
3.01505e-02 43.7916
3.57303e-02 44.8735
4.20141e-02 46.0438
4.98100e-02 47.3372
5.94464e-02 48.7615
7.16860e-02 50.3989
8.40872e-02 51.9044
9.11736e-02 52.7171
1.07790e-01 54.5058
1.30545e-01 56.8321
1.55177e-01 59.2298
1.80009e-01 61.6208
2.05165e-01 63.9672
2.30141e-01 66.2902
2.55058e-01 68.6020
2.79854e-01 70.9534
3.04629e-01 73.3350
3.29243e-01 75.8058
3.53856e-01 78.3357
3.77911e-01 81.0435
4.02644e-01 83.8035
4.27014e-01 86.6624
4.51342e-01 89.6816
4.75553e-01 92.8456
4.99400e-01 96.2415
5.30955e-01 101.1435
5.49342e-01 104.5274
5.78874e-01 110.1705
6.03372e-01 115.5112
6.28118e-01 121.7020
6.50076e-01 128.0388
6.72462e-01 136.3937
7.00262e-01 148.0295
7.21607e-01 159.7174
7.51594e-01 182.7790
7.74098e-01 204.5280
7.97792e-01 234.3557
8.22710e-01 271.2041
8.45371e-01 311.3998
8.72171e-01 361.9020
8.95369e-01 391.6764
9.08807e-01 398.0700
9.20518e-01 401.1961
9.30646e-01 403.2176
9.38645e-01 404.5957
9.46392e-01 406.5376
9.56440e-01 408.3761
9.66357e-01 410.2544
9.76376e-01 412.1272
9.83024e-01 413.6706
9.88046e-01 415.2372
9.93859e-01 417.8195
9.98451e-01 420.7269
9.91648e-01 418.5383
9.82866e-01 416.6660
9.73247e-01 415.3388
9.63937e-01 414.3754
9.54020e-01 413.5034
9.43403e-01 412.7319
9.33016e-01 412.0168
9.22566e-01 411.3483
9.13715e-01 410.7814
9.07239e-01 410.3189
8.96760e-01 410.1131
8.87713e-01 409.6588
8.74226e-01 408.8683
8.45993e-01 407.0209
8.27535e-01 403.3628
8.04278e-01 352.6116
7.79734e-01 284.8049
7.53837e-01 238.7237
7.29626e-01 204.4077
7.04174e-01 176.2081
6.79398e-01 155.5228
6.52288e-01 137.8890
6.27624e-01 127.2933
5.99335e-01 118.2700
5.73187e-01 112.3660
5.54086e-01 108.2632
5.22976e-01 102.5334
5.00464e-01 99.1764
4.68909e-01 94.6094
4.47549e-01 91.6313
4.25177e-01 88.4557
4.00696e-01 85.3282
3.75328e-01 82.3332
3.49499e-01 79.4779
3.23713e-01 76.7235
2.97926e-01 73.9833
2.72149e-01 71.3552
2.46868e-01 68.8019
2.21188e-01 66.2963
1.95725e-01 63.8256
1.70499e-01 61.3445
1.45440e-01 58.8029
1.20625e-01 56.1903
9.61299e-02 53.4367
7.19558e-02 50.4603
4.87385e-02 47.1437
2.54932e-02 42.6218