File: data/reports/ImportFrom_AY24-22 CK4660K41(III)_3361-ASMS_St4_2024_02_21_01_ads (at 2024-02-27-07-08-24)_report_01.txt
== Analysis Data ==
                             *** This data was imported from a human readable text file. ***
Sample Desc:                              Comment:
Instrument:       User Import             Sample Weight:    0.0317 g
Adsorbate:        Nitrogen                Analysis Temp.:   77.3 K
Analysis time     1194.49                 Ambient temp      300.0                   Instrument        AS6KR/MP
Station           4                       Software Version  2.02                    Sample Outgassing Time24.00
Sample Outgassing Temp300.00
== Data Reduction Parameters ==
                  Thermal Transpiration: off    Eff. mol. diameter (D): 3.54 Å      Eff. cell stem diam. (d): 4.0000 mm
t-Method          Calc. method: Halsey
MP method         Thickness interval: 0.50A
Alpha-s method    Std. isotherm: CABOT_BP_280   P / Po :          0.40
BJH/DH method     Moving pt. avg.: 11           Ignoring P-tags below 0.35 P/Po
DA Method         Incr. E:    500.000           Incr. n:          0.100             Interact. Const. (K): 2.960nm³ x kJ / mol
DR method         Affinity coefficient (ß): 0.3300
Adsorbate model   Nitrogen                      Temperature       77.350K
                  Molec. Wt.: 28.013            Cross Section:    16.200  Å²        Liquid Density:   0.808  g/cc
                  Contact Angle: 0.0  degrees   Surf. Tension:    8.850  erg/cm²
                  Critical Temp.: 126.200  K    Critical Press.:  33.500  atm       SuperCritic. K.:  1.000
                  Avg. Diameter:0.300  nm       Polarizability:   1.460  (cc/molec) x 10-24Magn. Suscept.:2.000
                  Molec. Density6.700  (mol/cm²)x1014
Adsorbent model   Carbon
                  Atom Diameter: 0.340  nm      Surf. Atom Dens.: 38.450  (mol/cm²)x1014Polarizability: 1.020  (cc/molec)x10-24
                                                Magn. Susc.:      13.500  (cc/molec)x10-29
== Volume/Area summary ==
                                                   Surface Area Data

MultiPoint BET                                                                           9.278e+02 m²/g
BJH method cumulative adsorption surface area                                            3.871e+01 m²/g
BJH method cumulative desorption surface area                                            3.871e+01 m²/g
DFT cumulative surface area                                                              8.905e+02 m²/g

                                                    Pore Volume Data

Total pore volume for pores with Diameter
less than 3194.10 nm at P/Po = 0.999400                                                  4.563e-01 cc/g
BJH method cumulative adsorption pore volume                                             9.284e-02 cc/g
BJH method cumulative desorption pore volume                                             9.284e-02 cc/g
DFT method cumulative pore volume                                                        3.853e-01 cc/g

                                                     Pore Size Data

Average pore Diameter                                                                    1.967e+00 nm
BJH method adsorption pore Diameter (Mode Dv(d))                                         3.175e+00 nm
BJH method desorption pore Diameter (Mode Dv(d))                                         3.175e+00 nm
DFT pore Diameter (Mode)                                                                 7.230e-01 nm

== Isotherm ==

                          Relative                                                  Volume @ STP
                          Pressure
                                                                                        cc/g

                             5.52895e-03                                               186.9872
                             8.67155e-03                                               193.7380
                             2.02377e-02                                               206.1281
                             3.25234e-02                                               213.5415
                             4.44547e-02                                               218.3867
                             6.27447e-02                                               223.4437
                             8.81064e-02                                               228.2469
                             1.12721e-01                                               231.6059
                             1.62878e-01                                               236.4937
                             2.13180e-01                                               239.9207
                             2.63279e-01                                               243.2951
                             3.13348e-01                                               245.9595
                             3.63356e-01                                               248.0979
                             4.13287e-01                                               250.3663
                             4.63322e-01                                               252.1824
                             5.13180e-01                                               254.1769
                             5.63188e-01                                               255.7531
                             6.13034e-01                                               257.3983
                             6.63184e-01                                               258.9101
                             7.12865e-01                                               260.7242
                             7.63058e-01                                               262.2166
                             8.13035e-01                                               263.5057
                             8.62799e-01                                               265.4956
                             9.12771e-01                                               267.1396
                             9.33257e-01                                               268.4776
                             9.44033e-01                                               269.2417
                             9.63606e-01                                               270.2715
                             9.83035e-01                                               272.9389
                             9.93083e-01                                               275.6469
                             9.93083e-01                                               275.6469
                             9.83035e-01                                               272.9389
                             9.63606e-01                                               270.2715
                             9.44033e-01                                               269.2417
                             9.33257e-01                                               268.4776
                             9.12771e-01                                               267.1396
                             8.62799e-01                                               265.4956
                             8.13035e-01                                               263.5057
                             7.63058e-01                                               262.2166
                             7.12865e-01                                               260.7242
                             6.63184e-01                                               258.9101
                             6.13034e-01                                               257.3983
                             5.63188e-01                                               255.7531
                             5.13180e-01                                               254.1769
                             4.63322e-01                                               252.1824
                             4.13287e-01                                               250.3663
                             3.63356e-01                                               248.0979
                             3.13348e-01                                               245.9595
                             2.63279e-01                                               243.2951
                             2.13180e-01                                               239.9207
                             1.62878e-01                                               236.4937
                             1.12721e-01                                               231.6059
                             8.81064e-02                                               228.2469
                             6.27447e-02                                               223.4437
                             4.44547e-02                                               218.3867
                             3.25234e-02                                               213.5415
                             2.02377e-02                                               206.1281
                             8.67155e-03                                               193.7380
                             5.52895e-03                                               186.9872
== Absolute Isotherm ==

                          Pressure                                                  Volume @ STP

                            Torr                                                        cc/g

                             4.3566                                                    186.9872
                             6.8328                                                    193.7380
                            15.9465                                                    206.1281
                            25.6271                                                    213.5415
                            35.0285                                                    218.3867
                            49.4403                                                    223.4437
                            69.4243                                                    228.2469
                            88.8196                                                    231.6059
                           128.3413                                                    236.4937
                           167.9773                                                    239.9207
                           207.4533                                                    243.2951
                           246.9057                                                    245.9595
                           286.3100                                                    248.0979
                           325.6536                                                    250.3663
                           365.0792                                                    252.1824
                           404.3653                                                    254.1769
                           443.7696                                                    255.7531
                           483.0463                                                    257.3983
                           522.5625                                                    258.9101
                           561.7091                                                    260.7242
                           601.2592                                                    262.2166
                           640.6391                                                    263.5057
                           679.8511                                                    265.4956
                           719.2270                                                    267.1396
                           735.3692                                                    268.4776
                           743.8602                                                    269.2417
                           759.2830                                                    270.2715
                           774.5923                                                    272.9389
                           782.5097                                                    275.6469
                           782.5097                                                    275.6469
                           774.5923                                                    272.9389
                           759.2830                                                    270.2715
                           743.8602                                                    269.2417
                           735.3692                                                    268.4776
                           719.2270                                                    267.1396
                           679.8511                                                    265.4956
                           640.6391                                                    263.5057
                           601.2592                                                    262.2166
                           561.7091                                                    260.7242
                           522.5625                                                    258.9101
                           483.0463                                                    257.3983
                           443.7696                                                    255.7531
                           404.3653                                                    254.1769
                           365.0792                                                    252.1824
                           325.6536                                                    250.3663
                           286.3100                                                    248.0979
                           246.9057                                                    245.9595
                           207.4533                                                    243.2951
                           167.9773                                                    239.9207
                           128.3413                                                    236.4937
                            88.8196                                                    231.6059
                            69.4243                                                    228.2469
                            49.4403                                                    223.4437
                            35.0285                                                    218.3867
                            25.6271                                                    213.5415
                            15.9465                                                    206.1281
                             6.8328                                                    193.7380
                             4.3566                                                    186.9872
== MBET summary ==
                                                     Slope =           3.749 1/g
                                                 Intercept =           4.071e-03 1/g
                                Correlation coefficient, r =           0.999989
                                                 C constant=         922.024

                                              Surface Area =         927.810 ~s/g
== Multi-Point BET ==

               Relative                            Volume @ STP                       1 / [ W((Po/P) - 1) ]
               Pressure
                 P/Po                                  cc/g                                    1/g

                  2.02377e-02                         206.1281                                 8.0178e-02
                  2.72472e-02                         210.7290                                 1.0635e-01
                  3.25234e-02                         213.5415                                 1.2596e-01
                  3.78978e-02                         215.9083                                 1.4597e-01
                  4.44547e-02                         218.3867                                 1.7045e-01
                  5.26141e-02                         220.8999                                 2.0115e-01
                  6.27447e-02                         223.4437                                 2.3972e-01
== Alpha-s summary ==
                                                     Slope =          43.107
                                         Alpha-S Intercept =         206.905 cc/g
                                   Correlation coefficient =           0.995

                                          Micropore volume =           0.320 cc/g
== Alpha-S method ==

            P/Po                     Volume @ STP                  Liquid Vol.                    Alpha

                                         cc/g                         cc/g

             2.1318e-01                   2.3992e+02                   3.7111e-01                  7.8176e-01
             2.3814e-01                   2.4194e+02                   3.7424e-01                  8.0972e-01
             2.6328e-01                   2.4330e+02                   3.7633e-01                  8.3832e-01
[...]
                  0.148486                            235.3                                  235.2
                  0.167613                            236.5                                  236.8
                  0.187398                            238.4                                  238.3
                  0.207448                            239.4                                  239.6
                  0.226155                            241.4                                  241
                  0.245311                            242.2                                  242.3
                  0.264278                            242.9                                  243.3
                  0.282103                            244.4                                  244.2
                  0.299301                            245                                    245.2
                  0.320966                            246.7                                  246.3
                  0.342995                            247.3                                  247.3
                  0.362922                            247.8                                  248.1
                  0.381723                            249.3                                  249
                  0.400096                            249.7                                  249.8
                  0.418501                            250.1                                  250.6
                  0.437201                            251.4                                  251.3
                  0.456305                            251.8                                  251.9
                  0.475795                            253.1                                  252.7
                  0.495565                            253.5                                  253.5
                  0.515445                            253.8                                  254.3
                  0.535227                            255                                    254.9
                  0.554689                            255.3                                  255.5
                  0.573611                            256.2                                  256
                  0.591795                            256.5                                  256.6
                  0.609076                            257.6                                  257.2
                  0.625329                            257.8                                  257.8
                  0.640481                            258.1                                  258.3
                  0.654511                            258.8                                  258.7
                  0.667451                            259                                    259
                  0.679384                            259.2                                  259.4
                  0.690438                            259.9                                  259.7
                  0.700777                            260.1                                  260.2
                  0.710588                            260.2                                  260.6
                  0.720067                            261.1                                  260.9
                  0.729401                            261.2                                  261.2
                  0.738745                            261.3                                  261.5
                  0.748201                            261.9                                  261.8
                  0.757785                            262                                    262.1
                  0.767401                            262.4                                  262.3
                  0.776803                            262.5                                  262.6
                  0.785565                            262.9                                  262.8
                  0.79303                             263                                    263
                  0.798279                            263.1                                  263.1
                  0.805986                            263.5                                  263.3
                  0.813463                            263.6                                  263.5
                  0.820037                            263.7                                  263.8
                  0.826787                            264.3                                  264.1
                  0.832939                            264.4                                  264.4
                  0.838757                            264.4                                  264.6
                  0.844717                            264.9                                  264.9
                  0.850435                            265                                    265.1
                  0.855611                            265.4                                  265.2
                  0.860713                            265.5                                  265.4
                  0.865997                            265.5                                  265.6
                  0.870895                            265.9                                  265.8
                  0.875283                            266                                    265.9
                  0.879628                            266                                    266
                  0.884128                            266.1                                  266.2
                  0.888729                            266.4                                  266.3
                  0.892728                            266.4                                  266.5
                  0.896501                            266.7                                  266.6
                  0.900408                            266.7                                  266.7
                  0.90412                             266.8                                  266.8
                  0.907624                            266.8                                  267
                  0.911023                            267.1                                  267.1
                  0.914242                            267.2                                  267.2
                  0.917354                            267.3                                  267.3
                  0.920344                            267.7                                  267.4
                  0.923219                            267.7                                  267.5
                  0.926044                            267.8                                  267.8
                  0.928725                            267.8                                  268
                  0.931356                            268.6                                  268.3
                  0.933842                            268.6                                  268.5
                  0.936285                            268.6                                  268.8
                  0.938596                            269                                    269.1
                  0.940847                            269.2                                  269.1
                  0.943008                            269.3                                  269.2
                  0.945071                            269.3                                  269.3
                  0.947121                            269.3                                  269.4
                  0.949031                            269.6                                  269.5
                  0.950914                            269.6                                  269.6
                  0.952736                            269.7                                  269.7
                  0.954437                            269.8                                  269.8
                  0.956137                            269.8                                  269.9
                  0.957766                            270                                    270
                  0.959279                            270                                    270
                  0.959772                            270                                    270.1